LabVIEW Measurement	
Writer_Version	2
Reader_Version	2
Separator	Tab
Decimal_Separator	.
Multi_Headings	No
X_Columns	No
Time_Pref	Relative
Operator	studentx
Description	Average of 53 autocorrelation functions (71s, 106000 photons). 100 bins with tau minimum=1.000000E-5 and tau maximum=1.000000. Final photodiode reading: 3.124930V. \0A\0AData columns formatted as 'Centred bin values' : 'Correlation value' : 'Standard Error'
Date	2022/04/05
Time	13:38:47.388393402099609375
***End_of_Header***	
	
Channels	3			
Samples	100	100	100	
Date	1903/12/31	1903/12/31	1903/12/31	
Time	16:00:00	16:00:00	16:00:00	
X_Dimension	Time	Time	Time	
X0	0.0000000000000000E+0	0.0000000000000000E+0	0.0000000000000000E+0	
Delta_X	1.000000	1.000000	1.000000	
***End_of_Header***				
X_Value	Untitled	Untitled 1	Untitled 2	Comment
	1.060000E-5	-0.142595	0.069104
	1.188750E-5	0.035295	0.071697
	1.331250E-5	0.019533	0.062320
	1.492500E-5	0.159068	0.058115
	1.672500E-5	0.207174	0.059938
	1.875000E-5	0.055024	0.056334
	2.101250E-5	0.045301	0.046647
	2.355000E-5	-0.077964	0.046352
	2.638750E-5	-0.091911	0.039958
	2.957500E-5	0.062208	0.049837
	3.315000E-5	0.152711	0.037423
	3.715000E-5	0.023051	0.036577
	4.163750E-5	-0.102244	0.034602
	4.666250E-5	-0.003206	0.035757
	5.230000E-5	0.093230	0.034521
	5.861250E-5	-0.097247	0.029847
	6.568750E-5	0.083987	0.033010
	7.362500E-5	-0.070993	0.029720
	8.251250E-5	0.039797	0.028500
	9.247500E-5	-0.036779	0.020882
	0.000104	0.036478	0.024860
	0.000116	0.020979	0.023407
	0.000130	-0.022575	0.022892
	0.000146	0.016242	0.021181
	0.000164	-0.021144	0.018460
	0.000183	-0.006478	0.015804
	0.000205	-0.016655	0.019378
	0.000230	0.045631	0.017689
	0.000258	-0.004851	0.016847
	0.000289	0.008743	0.014069
	0.000324	-0.000737	0.013483
	0.000363	-0.009168	0.011965
	0.000407	0.033594	0.013090
	0.000456	-0.017293	0.011533
	0.000511	-0.014077	0.009732
	0.000573	-0.007927	0.010589
	0.000642	-0.014788	0.009126
	0.000720	-0.018575	0.008528
	0.000807	0.006998	0.008826
	0.000904	-0.007401	0.009033
	0.001013	0.018723	0.007691
	0.001135	-0.009953	0.006269
	0.001273	-0.011577	0.007505
	0.001426	0.001005	0.007281
	0.001598	0.004976	0.006502
	0.001791	0.008223	0.005985
	0.002008	-0.002141	0.005965
	0.002250	-0.007940	0.005190
	0.002522	1.490798E-5	0.005056
	0.002826	-0.002789	0.004957
	0.003167	0.003478	0.004283
	0.003550	-0.002276	0.004050
	0.003978	-0.008014	0.003224
	0.004459	-0.002561	0.003512
	0.004997	-0.005125	0.003258
	0.005601	0.000392	0.003225
	0.006277	-0.002819	0.002634
	0.007035	-0.006749	0.002718
	0.007884	0.000982	0.002574
	0.008836	-0.001924	0.002217
	0.009903	-0.002273	0.002956
	0.011098	-0.001325	0.002038
	0.012438	0.001078	0.002006
	0.013940	-0.002695	0.001726
	0.015623	0.000602	0.001993
	0.017510	-0.002972	0.001708
	0.019624	0.000640	0.001946
	0.021993	-0.001182	0.001604
	0.024649	-0.003735	0.001509
	0.027625	0.002234	0.001558
	0.030960	-0.001212	0.001158
	0.034698	-0.001254	0.001269
	0.038888	-0.000936	0.001045
	0.043583	-0.001970	0.001298
	0.048845	0.000346	0.000982
	0.054743	-0.000394	0.001111
	0.061353	0.000607	0.001037
	0.068760	-0.000501	0.001085
	0.077063	-0.000812	0.000973
	0.086367	-0.001474	0.000733
	0.096795	-0.000431	0.000894
	0.108482	-0.002023	0.000723
	0.121580	-0.000430	0.000772
	0.136260	-0.000130	0.000735
	0.152712	-0.001982	0.000893
	0.171151	0.000107	0.000691
	0.191815	-0.001334	0.000557
	0.214975	-0.001164	0.000685
	0.240931	-0.001131	0.000636
	0.270021	-0.001617	0.000688
	0.302624	-0.001517	0.000598
	0.339163	-0.002190	0.000710
	0.380113	-0.001010	0.000612
	0.426008	-0.001893	0.000860
	0.477444	-0.000429	0.000788
	0.535091	-0.000336	0.001046
	0.599698	-0.001433	0.001139
	0.672106	-0.002581	0.000968
	0.753256	-3.849420E-5	0.001433
	0.844204	-0.000327	0.001584
