LabVIEW Measurement	
Writer_Version	2
Reader_Version	2
Separator	Tab
Decimal_Separator	.
Multi_Headings	No
X_Columns	No
Time_Pref	Relative
Operator	studentx
Description	Average of 1354 autocorrelation functions (4172s, 270800 photons). 100 bins with tau minimum=0.001000 and tau maximum=1.000000. Final photodiode reading: 2.487377V. \0A\0AData columns formatted as 'Centred bin values' : 'Correlation value' : 'Standard Error'
Date	2022/04/05
Time	13:38:47.388393402099609375
***End_of_Header***	
	
Channels	3			
Samples	100	100	100	
Date	1903/12/31	1903/12/31	1903/12/31	
Time	16:00:00	16:00:00	16:00:00	
X_Dimension	Time	Time	Time	
X0	0.0000000000000000E+0	0.0000000000000000E+0	0.0000000000000000E+0	
Delta_X	1.000000	1.000000	1.000000	
***End_of_Header***				
X_Value	Untitled	Untitled 1	Untitled 2	Comment
	0.001035	-0.047533	0.004768
	0.001109	0.000271	0.025105
	0.001187	0.017255	0.022346
	0.001271	0.021708	0.004288
	0.001361	0.059422	0.019382
	0.001458	0.039763	0.004344
	0.001561	0.015341	0.003482
	0.001671	-0.019903	0.004850
	0.001789	-0.041458	0.012192
	0.001916	-0.006994	0.014185
	0.002052	0.053844	0.019917
	0.002197	0.032463	0.003630
	0.002353	-0.023117	0.003593
	0.002519	-0.018591	0.007086
	0.002697	0.040333	0.007455
	0.002888	0.009462	0.010658
	0.003093	-0.011580	0.003500
	0.003312	0.013398	0.004578
	0.003546	-0.006164	0.007528
	0.003797	0.015785	0.007373
	0.004066	0.000121	0.003003
	0.004354	-0.006429	0.003590
	0.004662	0.008536	0.005535
	0.004992	0.002109	0.003382
	0.005345	0.015075	0.007048
	0.005724	-1.682893E-6	0.002790
	0.006129	0.002263	0.003604
	0.006563	0.006716	0.004229
	0.007027	0.006612	0.005099
	0.007525	0.005492	0.004124
	0.008057	0.007637	0.003045
	0.008628	0.001379	0.002522
	0.009238	0.003917	0.002059
	0.009892	-0.001823	0.002525
	0.010593	-0.000969	0.002362
	0.011343	-0.002041	0.002132
	0.012145	0.001998	0.001517
	0.013005	-0.001438	0.001731
	0.013926	0.002696	0.001912
	0.014911	0.003198	0.001614
	0.015967	0.003065	0.002047
	0.017097	0.000988	0.001480
	0.018308	0.001524	0.001240
	0.019603	0.000342	0.001122
	0.020991	0.002830	0.001292
	0.022477	0.002020	0.001265
	0.024068	0.001600	0.001136
	0.025772	0.002380	0.001115
	0.027596	0.004568	0.001148
	0.029550	0.002783	0.001076
	0.031641	0.003833	0.000949
	0.033881	0.002707	0.000848
	0.036279	0.003087	0.000733
	0.038847	0.001988	0.000800
	0.041597	0.003226	0.000821
	0.044542	0.000815	0.000750
	0.047695	0.002873	0.000724
	0.051071	0.002295	0.000716
	0.054686	0.002896	0.000648
	0.058557	0.003061	0.000665
	0.062702	0.001137	0.000639
	0.067141	0.002045	0.000627
	0.071893	0.001743	0.000564
	0.076983	0.002608	0.000636
	0.082432	0.002585	0.000518
	0.088267	0.002328	0.000456
	0.094515	0.002011	0.000593
	0.101206	0.002817	0.000466
	0.108370	0.001654	0.000470
	0.116041	0.001973	0.000472
	0.124255	0.001391	0.000433
	0.133050	0.001963	0.000361
	0.142469	0.001671	0.000442
	0.152554	0.002366	0.000398
	0.163352	0.001602	0.000420
	0.174915	0.001646	0.000351
	0.187297	0.001905	0.000367
	0.200555	0.001120	0.000334
	0.214752	0.000960	0.000362
	0.229953	0.001436	0.000326
	0.246231	0.001081	0.000291
	0.263661	0.000965	0.000348
	0.282325	0.001010	0.000293
	0.302310	0.000472	0.000285
	0.323709	0.000420	0.000299
	0.346623	0.000381	0.000237
	0.371160	0.000325	0.000260
	0.397433	0.000231	0.000224
	0.425566	0.000228	0.000246
	0.455690	-0.000176	0.000247
	0.487947	-0.000352	0.000243
	0.522487	-0.000330	0.000240
	0.559472	-0.000306	0.000232
	0.599076	-0.000585	0.000251
	0.641482	-0.000529	0.000240
	0.686891	-0.000739	0.000243
	0.735513	-0.000654	0.000286
	0.787578	-0.001370	0.000278
	0.843328	-0.000691	0.000314
	0.903024	-0.000952	0.000288
